	Y (Y)\Âµm	0	400.834	801.668	1202.5	1603.34	2004.17	2405	2805.84	3206.67	3607.51	4008.34	4409.17	4810.01	5210.84	5611.68	6012.51	6413.34	6814.18	7215.01	7615.85	8016.68	8417.51	8818.35	9219.18	9620.02	10020.9	10421.7	10822.5	11223.4	11624.2
X (X)																															
Âµm		Counts/s	Counts/s	Counts/s	Counts/s	Counts/s	Counts/s	Counts/s	Counts/s	Counts/s	Counts/s	Counts/s	Counts/s	Counts/s	Counts/s	Counts/s	Counts/s	Counts/s	Counts/s	Counts/s	Counts/s	Counts/s	Counts/s	Counts/s	Counts/s	Counts/s	Counts/s	Counts/s	Counts/s	Counts/s	Counts/s
0		67.377	79.0733	55.6806	49.0363	46.5603	27.7361	11.0211	7.64472	4.52681	12.0632	4.35174	3.58477	4.87695	1.95912	0	2.68441	2.31759	2.14252	3.33467	5.52721	0.942043	-1.0	-1.0	-1.0	-1.0	-1.0	-1.0	-1.0	-1.0	-1.0
399.898		65.0177	74.7966	70.9701	66.9935	53.5964	40.5412	34.3888	18.1739	8.74516	4.06829	0	2.96785	1.95912	0	0	3.62645	1.79238	0	0.942043	2.55936	0	-1.0	-1.0	-1.0	-1.0	-1.0	-1.0	-1.0	-1.0	-1.0
799.796		56.5309	63.5671	73.7212	86.7514	66.4933	67.9272	24.4681	20.0664	9.92063	3.57643	9.162	5.11871	0.366813	0.65026	0	3.9099	2.55936	4.71022	4.40176	5.65226	1.19214	-1.0	-1.0	-1.0	-1.0	-1.0	-1.0	-1.0	-1.0	-1.0
1199.69		54.3968	69.061	73.6461	70.2114	67.0435	51.4789	40.7413	13.2136	11.4129	11.2295	6.49426	1.55062	2.55936	0	2.68441	0	0	0	0	0	2.68441	-1.0	-1.0	-1.0	-1.0	-1.0	-1.0	-1.0	-1.0	-1.0
1599.59		48.6528	92.437	58.1399	81.6577	75.2968	55.0137	55.4722	22.9842	17.2402	4.31839	3.45972	6.66933	0.77531	0	0	4.70188	0	4.70188	2.55936	3.98493	0	-1.0	-1.0	-1.0	-1.0	-1.0	-1.0	-1.0	-1.0	-1.0
1999.49		49.178	63.3253	68.5608	112.753	70.4282	64.9426	37.8401	41.2665	15.6896	2.501	11.663	5.11871	2.55936	3.74316	3.61811	2.31759	1.01707	2.68441	0	0.77531	0	-1.0	-1.0	-1.0	-1.0	-1.0	-1.0	-1.0	-1.0	-1.0
2399.39		53.8215	49.3614	70.5532	88.0602	67.5353	55.072	37.4233	31.3709	28.6031	12.5717	3.7515	0	0	0	0	0	0	3.61811	3.08457	0	0	-1.0	-1.0	-1.0	-1.0	-1.0	-1.0	-1.0	-1.0	-1.0
2799.29		43.0422	38.3904	64.6175	99.3647	88.2103	67.6104	48.0359	24.6432	27.4777	13.5304	7.07783	5.72729	2.68441	2.31759	0	0	5.002	0	2.55936	0	2.39262	-1.0	-1.0	-1.0	-1.0	-1.0	-1.0	-1.0	-1.0	-1.0
3199.18		46.1101	47.0938	49.945	68.0856	74.98	59.924	53.6298	38.1319	34.8806	8.76184	8.22829	3.33467	3.20962	3.33467	0	0	0	0	3.1596	0	0	-1.0	-1.0	-1.0	-1.0	-1.0	-1.0	-1.0	-1.0	-1.0
3599.08		25.4352	53.3797	66.5266	102.391	67.1519	95.7133	57.2896	47.1772	33.4634	27.9028	15.6146	4.3434	8.80352	3.45972	7.21122	0.77531	5.11038	5.97739	0	0	0	-1.0	-1.0	-1.0	-1.0	-1.0	-1.0	-1.0	-1.0	-1.0
3998.98		39.6909	34.3804	37.1899	95.1714	93.9876	73.9963	80.0904	58.3733	34.3471	31.6877	29.1367	14.8643	10.8877	6.9111	0	4.27671	2.14252	2.14252	0	0	0	-1.0	-1.0	-1.0	-1.0	-1.0	-1.0	-1.0	-1.0	-1.0
4398.88		40.4912	33.9219	69.4111	92.6621	72.6874	83.4	48.9779	43.5424	33.0466	26.3605	18.0822	10.9127	1.8424	3.94324	0	3.56809	1.19214	0	3.69314	0	0	-1.0	-1.0	-1.0	-1.0	-1.0	-1.0	-1.0	-1.0	-1.0
4798.78		24.5432	38.1736	40.5496	66.5683	69.9446	71.1535	58.6818	31.1875	36.0144	30.3038	14.6725	2.38429	3.73483	3.45972	0.942043	0	2.39262	0	2.39262	0.65026	0	-1.0	-1.0	-1.0	-1.0	-1.0	-1.0	-1.0	-1.0	-1.0
5198.67		23.0342	25.727	42.6421	68.3107	75.5052	78.1479	74.8216	65.5596	45.3265	43.9593	23.5678	10.1957	11.4796	2.31759	5.24376	2.55936	0	2.31759	1.19214	1.19214	0.366813	-1.0	-1.0	-1.0	-1.0	-1.0	-1.0	-1.0	-1.0	-1.0
5598.57		24.5432	31.7377	31.3959	62.9335	87.2266	82.2329	74.9466	71.8788	52.521	25.6186	29.2951	20.0747	7.68641	9.7539	3.33467	0	0	5.01034	1.01707	0	0.366813	-1.0	-1.0	-1.0	-1.0	-1.0	-1.0	-1.0	-1.0	-1.0
5998.47		16.2148	11.3379	29.5285	43.9926	36.3729	77.0892	67.9939	62.1999	66.9851	45.4432	42.3836	23.8179	10.8293	7.72809	6.24416	1.30052	0.942043	0.942043	2.68441	0	0	-1.0	-1.0	-1.0	-1.0	-1.0	-1.0	-1.0	-1.0	-1.0
6398.37		13.9139	17.6154	24.6599	45.2181	71.4036	62.3166	63.7838	79.0066	86.2011	35.3308	21.0834	9.99566	9.06196	4.95198	7.06949	0	4.76024	6.96945	5.11871	1.19214	0.65026	-1.0	-1.0	-1.0	-1.0	-1.0	-1.0	-1.0	-1.0	-1.0
6798.27		9.76224	12.9385	33.2716	41.0831	56.1808	46.4102	63.5171	107.46	70.8867	39.4491	27.3193	25.7686	11.0544	9.5955	7.503	4.96032	0	2.14252	2.79278	0	1.01707	-1.0	-1.0	-1.0	-1.0	-1.0	-1.0	-1.0	-1.0	-1.0
7198.16		14.1223	11.613	21.742	20.4248	55.8057	78.6898	60.124	76.9391	77.9729	82.2412	36.1645	21.4336	20.4082	10.6626	1.19214	0.65026	0	2.39262	0	0.65026	2.31759	-1.0	-1.0	-1.0	-1.0	-1.0	-1.0	-1.0	-1.0	-1.0
7598.06		20.0747	24.3181	8.21162	35.6059	51.629	43.0672	61.1161	70.1281	61.4496	53.9466	29.5535	32.3296	10.7793	19.1327	6.5943	2.91783	2.36761	3.08457	0.65026	0	0	-1.0	-1.0	-1.0	-1.0	-1.0	-1.0	-1.0	-1.0	-1.0
7997.96		10.4875	20.2081	13.1636	22.8925	46.8021	55.022	49.7532	65.1094	61.8247	66.4599	36.8814	32.5547	15.5646	13.6388	4.63519	1.66733	10.6126	0	2.14252	2.31759	0.77531	-1.0	-1.0	-1.0	-1.0	-1.0	-1.0	-1.0	-1.0	-1.0
8397.86		8.67013	26.5106	13.9056	23.7345	44.6929	53.9382	80.4155	74.138	78.8065	56.0224	55.9641	37.8318	33.9386	18.374	16.8651	11.4379	3.80152	1.19214	2.55936	2.31759	0	-1.0	-1.0	-1.0	-1.0	-1.0	-1.0	-1.0	-1.0	-1.0
8797.76		9.87895	10.4375	19.3494	27.8862	20.4999	49.6865	66.2765	48.7528	62.1749	82.9582	46.8187	25.8187	23.1092	16.2732	5.76897	5.88569	1.96745	0	2.39262	0	2.14252	-1.0	-1.0	-1.0	-1.0	-1.0	-1.0	-1.0	-1.0	-1.0
9197.65		11.2878	3.9099	10.2124	27.7361	36.8898	53.8799	61.608	60.1074	65.6929	64.6509	71.3619	38.8822	39.1823	27.9695	5.002	16.8651	3.7515	7.92817	0	0.77531	0.77531	-1.0	-1.0	-1.0	-1.0	-1.0	-1.0	-1.0	-1.0	-1.0
9597.55		11.663	6.83607	13.5638	11.4046	28.2446	35.9811	36.1228	55.6389	78.6981	60.1907	75.2468	61.9665	36.3896	38.0569	15.4312	8.22829	6.8444	1.01707	3.50974	2.39262	0	-1.0	-1.0	-1.0	-1.0	-1.0	-1.0	-1.0	-1.0	-1.0
9997.45		13.1303	4.92697	7.08617	14.3474	21.1335	54.2717	52.9795	72.1539	111.219	81.0074	90.2945	50.912	45.2598	31.1791	15.5145	2.94284	1.38389	6.01907	4.22669	4.53515	0	-1.0	-1.0	-1.0	-1.0	-1.0	-1.0	-1.0	-1.0	-1.0
10397.3		4.36008	9.55382	8.76184	11.788	27.2276	39.5908	48.6945	57.2646	87.4767	90.8197	76.0221	58.9236	53.8382	43.309	19.7829	5.72729	7.07783	5.88569	5.30212	2.31759	1.66733	-1.0	-1.0	-1.0	-1.0	-1.0	-1.0	-1.0	-1.0	-1.0
10797.2		4.63519	7.62805	9.17033	10.946	13.7305	37.8401	50.9037	35.8977	74.6882	63.2586	83.5584	59.4988	49.5115	33.1383	26.2772	13.1136	6.12745	2.39262	0	2.14252	0	-1.0	-1.0	-1.0	-1.0	-1.0	-1.0	-1.0	-1.0	-1.0
11197.1		9.33707	13.447	9.95398	12.8635	28.3113	16.0564	40.9664	50.9871	71.6203	59.0986	78.9066	80.5322	54.7719	43.5341	35.1891	11.9881	14.881	0	7.42797	0	2.14252	-1.0	-1.0	-1.0	-1.0	-1.0	-1.0	-1.0	-1.0	-1.0
11597		14.8893	4.52681	4.71022	6.95278	17.4403	13.5221	19.1243	51.9041	62.1248	54.3551	74.9717	70.103	65.6263	64.8426	39.9326	13.5387	16.0064	2.96785	11.9131	0	6.26084	-1.0	-1.0	-1.0	-1.0	-1.0	-1.0	-1.0	-1.0	-1.0
11996.9		2.56769	2.79278	9.78725	8.69514	5.95238	12.43	23.276	92.7621	52.3043	74.2547	77.9145	69.2277	78.0479	62.525	47.3606	20.0247	23.3844	12.1882	1.30886	3.04288	0.65026	-1.0	-1.0	-1.0	-1.0	-1.0	-1.0	-1.0	-1.0	-1.0
12396.8		5.10204	3.16793	12.0048	12.0465	24.7849	23.3093	24.143	37.4733	77.506	39.2407	71.0534	71.5703	77.2642	58.7735	46.0934	35.756	14.4224	11.3462	2.75944	2.03415	2.39262	-1.0	-1.0	-1.0	-1.0	-1.0	-1.0	-1.0	-1.0	-1.0
12796.7		3.61811	4.87695	5.36881	10.6709	8.16993	16.8484	23.1926	23.9096	51.4539	67.2519	80.8407	71.7037	61.3579	50.3285	45.6349	27.7694	15.1561	10.4959	0	3.70148	2.96785	-1.0	-1.0	-1.0	-1.0	-1.0	-1.0	-1.0	-1.0	-1.0
13196.6		6.19414	2.68441	8.73683	14.3474	6.48593	15.006	22.1088	27.2609	55.6556	78.9899	53.4214	80.1237	57.1395	58.7985	41.8751	31.8544	23.6094	7.45298	1.71735	1.71735	3.45972	-1.0	-1.0	-1.0	-1.0	-1.0	-1.0	-1.0	-1.0	-1.0
13596.5		8.04488	6.98613	6.86108	7.07783	12.2716	20.2331	19.7996	55.864	38.6238	45.1847	74.955	76.9391	62.8418	83.4751	64.3924	30.5956	36.2145	12.7968	10.8627	9.35374	0.65026	-1.0	-1.0	-1.0	-1.0	-1.0	-1.0	-1.0	-1.0	-1.0
13996.4		6.30252	9.67053	11.738	3.25964	10.821	14.3557	15.5979	30.8207	43.1172	45.3265	82.6247	65.5262	78.7065	92.2953	44.4511	47.8775	29.3868	29.9536	10.9044	3.70148	3.7515	-1.0	-1.0	-1.0	-1.0	-1.0	-1.0	-1.0	-1.0	-1.0
14396.3		8.79518	1.01707	7.97819	19.7496	10.1707	19.5328	6.06076	29.27	26.4773	59.5738	45.2764	65.7346	84.2087	86.1011	71.4369	46.8604	28.4864	20.4415	6.71102	10.0123	2.14252	-1.0	-1.0	-1.0	-1.0	-1.0	-1.0	-1.0	-1.0	-1.0
14796.2		4.22669	5.07703	2.08417	9.17867	8.52841	18.0155	20.008	20.1997	40.3411	46.3685	73.3293	66.3015	66.4099	101.349	74.1713	45.8017	43.4591	20.6833	20.9667	8.0949	2.14252	-1.0	-1.0	-1.0	-1.0	-1.0	-1.0	-1.0	-1.0	-1.0
15196.1		7.01947	1.14212	3.16793	5.10204	3.5014	9.52047	3.1596	18.6575	28.0612	52.3543	69.978	66.8684	70.3782	100.298	57.3063	62.5584	36.648	20.3832	18.4157	12.4216	1.01707	-1.0	-1.0	-1.0	-1.0	-1.0	-1.0	-1.0	-1.0	-1.0
15596		6.01907	4.39342	2.96785	12.9885	10.1707	15.5646	6.17747	10.771	19.7162	36.7897	60.3908	66.3015	72.7458	47.3689	60.2324	44.4261	84.7422	43.1256	22.4673	12.8551	11.5296	-1.0	-1.0	-1.0	-1.0	-1.0	-1.0	-1.0	-1.0	-1.0
15995.9		3.1596	2.39262	4.90196	14.5475	9.162	3.20962	16.4733	21.742	31.9461	42.0168	59.2904	81.6327	71.5203	80.4989	73.1543	51.0954	63.2503	41.9251	35.1724	7.66973	7.55302	-1.0	-1.0	-1.0	-1.0	-1.0	-1.0	-1.0	-1.0	-1.0
16395.8		3.26797	3.0929	5.71895	11.6547	9.15366	1.19214	12.9719	16.2732	23.6428	31.2542	24.6932	48.0275	77.2976	84.984	78.3063	56.2308	45.093	49.2614	40.0327	7.1612	6.91943	-1.0	-1.0	-1.0	-1.0	-1.0	-1.0	-1.0	-1.0	-1.0
16795.7		2.39262	8.10324	3.20962	5.62725	9.77057	8.57843	11.0794	7.93651	24.2264	19.7079	47.0688	53.6631	45.1347	100.432	50.837	60.6743	59.7406	49.4615	21.6003	11.9131	8.03655	-1.0	-1.0	-1.0	-1.0	-1.0	-1.0	-1.0	-1.0	-1.0
17195.6		5.844	6.01907	3.04288	11.2045	1.42557	4.52681	5.12705	15.6396	24.0846	20.4665	43.9342	51.3205	52.6044	58.6318	62.2749	90.0027	77.4893	43.0506	15.9731	11.613	13.8222	-1.0	-1.0	-1.0	-1.0	-1.0	-1.0	-1.0	-1.0	-1.0
17595.5		4.65186	3.33467	2.96785	13.5721	6.79438	3.4097	0.942043	17.9405	6.92777	23.2343	32.9799	35.9727	73.2376	56.0307	105.209	91.3782	68.8692	64.4675	30.4538	25.1267	14.5892	-1.0	-1.0	-1.0	-1.0	-1.0	-1.0	-1.0	-1.0	-1.0
17995.4		0	2.55936	9.27037	3.20962	3.0929	5.65226	11.0794	8.67847	8.77017	18.5241	20.9167	46.0934	50.7536	76.1138	49.4531	88.2186	52.0291	48.7778	38.6405	29.9203	7.82813	-1.0	-1.0	-1.0	-1.0	-1.0	-1.0	-1.0	-1.0	-1.0
18395.3		9.87895	2.39262	3.62645	5.05202	3.98493	18.0572	17.3236	6.8444	18.8409	7.14452	12.0131	18.399	63.5004	43.1256	67.2186	71.3952	83.9502	84.5338	42.8171	32.6714	15.6229	-1.0	-1.0	-1.0	-1.0	-1.0	-1.0	-1.0	-1.0	-1.0
18795.2		2.55936	5.72729	2.31759	7.74476	3.7515	12.2799	4.88529	8.74516	4.35174	14.7142	13.2136	35.5392	60.2241	41.0831	47.6441	89.1106	85.3591	59.2237	37.4983	27.8695	7.19454	-1.0	-1.0	-1.0	-1.0	-1.0	-1.0	-1.0	-1.0	-1.0
19195.1		2.14252	5.11038	2.50934	3.04288	9.68721	2.96785	1.19214	16.5483	8.99526	3.17627	8.97025	26.3772	32.7714	48.8862	71.0201	69.5862	60.5409	88.2853	47.9942	47.9192	31.671	-1.0	-1.0	-1.0	-1.0	-1.0	-1.0	-1.0	-1.0	-1.0
19595		3.08457	0.65026	0.942043	0	3.62645	4.95198	5.17707	3.70148	4.82693	3.52641	11.5796	19.1327	47.7441	30.2538	60.7076	64.8176	79.1983	76.714	71.7537	54.897	16.8067	-1.0	-1.0	-1.0	-1.0	-1.0	-1.0	-1.0	-1.0	-1.0
19994.9		4.35174	0	10.0707	2.1592	0	5.65226	6.2525	11.8714	11.7797	8.94524	17.5737	25.8603	24.0513	36.1144	51.7457	59.5155	73.0459	81.8577	100.048	31.3459	39.1823	-1.0	-1.0	-1.0	-1.0	-1.0	-1.0	-1.0	-1.0	-1.0
20394.8		8.28665	4.40176	3.70148	2.14252	7.90316	8.16993	3.85988	6.2525	11.2628	8.32833	14.239	24.3931	21.8087	34.7806	36.6647	87.2516	83.9419	69.5945	48.7112	45.2681	26.4773	-1.0	-1.0	-1.0	-1.0	-1.0	-1.0	-1.0	-1.0	-1.0
20794.7		2.96785	7.14452	5.36048	4.95198	8.98693	7.56136	7.48633	5.35214	4.35174	10.4959	22.534	26.6607	22.3006	38.0652	47.6024	44.8096	64.3591	81.5076	75.9971	55.3805	55.5389	-1.0	-1.0	-1.0	-1.0	-1.0	-1.0	-1.0	-1.0	-1.0
21194.6		2.38429	2.9095	1.71735	0.65026	7.21955	3.0929	11.788	8.06156	7.11118	7.68641	7.3446	12.3966	10.3875	34.0553	50.887	57.1812	72.604	96.4386	81.4159	70.0113	63.2336	-1.0	-1.0	-1.0	-1.0	-1.0	-1.0	-1.0	-1.0	-1.0
21594.5		0	4.70188	13.3887	0	2.55936	3.33467	7.91983	1.95912	5.12705	18.8325	5.73563	7.63639	12.1549	13.0219	45.8517	47.9358	73.5711	75.5802	65.1427	40.2828	56.4893	-1.0	-1.0	-1.0	-1.0	-1.0	-1.0	-1.0	-1.0	-1.0
21994.4		2.68441	0	0.366813	5.47719	0.65026	4.96032	6.67767	4.16	3.33467	11.788	6.12745	14.7226	11.6713	42.392	39.3407	52.9629	50.2201	81.0324	93.7875	61.8914	59.8656	-1.0	-1.0	-1.0	-1.0	-1.0	-1.0	-1.0	-1.0	-1.0
22394.3		3.58477	0.942043	5.92737	0.77531	4.94364	1.79238	9.31206	7.61971	3.98493	5.36048	13.5554	18.9659	19.0493	21.2252	13.8972	71.1201	72.8875	86.6763	66.1598	67.3519	54.6802	-1.0	-1.0	-1.0	-1.0	-1.0	-1.0	-1.0	-1.0	-1.0
22794.2		0	2.55936	5.89402	1.66733	1.79238	3.70148	13.4054	8.57843	8.73683	9.57049	16.5566	16.3565	17.3569	16.1398	30.4538	48.0109	51.4456	66.0931	68.0522	59.5071	63.9589	-1.0	-1.0	-1.0	-1.0	-1.0	-1.0	-1.0	-1.0	-1.0
23194.1		0.65026	2.68441	0	4.87695	4.40176	2.55936	0	1.19214	15.848	4.22669	5.71895	12.5884	15.5312	29.2033	17.5737	35.1974	65.3762	72.9875	88.2186	71.9288	90.903	-1.0	-1.0	-1.0	-1.0	-1.0	-1.0	-1.0	-1.0	-1.0
23594		2.57603	0	6.55262	0.65026	0.366813	10.6626	10.3041	3.33467	3.33467	9.82893	6.12745	7.86148	9.81226	11.0961	17.8822	29.8369	44.0426	35.7059	81.1241	50.4785	64.8926	-1.0	-1.0	-1.0	-1.0	-1.0	-1.0	-1.0	-1.0	-1.0
23993.9		0	0	2.14252	3.74316	3.33467	0.366813	1.01707	0	9.97065	15.1311	6.95278	12.5717	7.76144	9.52047	19.9997	25.0434	52.2626	57.1228	79.24	60.4158	78.248	-1.0	-1.0	-1.0	-1.0	-1.0	-1.0	-1.0	-1.0	-1.0
24393.8		1.01707	2.55936	4.28505	2.68441	11.1545	3.33467	10.1457	2.68441	11.3129	7.39462	6.71102	4.40176	16.8067	9.82059	12.1132	22.1422	21.7837	69.5028	64.6759	72.6874	64.134	-1.0	-1.0	-1.0	-1.0	-1.0	-1.0	-1.0	-1.0	-1.0
24793.7		2.31759	1.01707	2.96785	6.71102	2.31759	0.77531	0.366813	0	0.77531	5.61058	5.002	13.6555	12.555	21.0418	18.9576	11.3129	23.3177	36.4479	59.4071	67.6437	57.6564	-1.0	-1.0	-1.0	-1.0	-1.0	-1.0	-1.0	-1.0	-1.0
25193.6		5.11038	7.63639	0.65026	1.01707	2.31759	2.13419	0	0.366813	7.56969	3.0929	0	10.3625	11.0711	4.94364	8.45338	9.77891	21.8171	31.3209	59.7822	85.951	47.1355	-1.0	-1.0	-1.0	-1.0	-1.0	-1.0	-1.0	-1.0	-1.0
25593.5		7.57803	0	2.14252	2.68441	9.27037	3.98493	1.19214	6.26917	7.76977	12.0798	2.14252	5.58557	4.60184	18.4574	6.13579	16.9651	28.6698	31.3042	43.3173	74.188	60.9827	-1.0	-1.0	-1.0	-1.0	-1.0	-1.0	-1.0	-1.0	-1.0
25993.4		0	2.68441	0	4.63519	0	8.32833	7.08617	2.53435	5.35214	7.99486	2.31759	8.5034	7.81146	7.92817	7.86148	20.1747	25.6769	17.5987	41.7917	55.2054	87.3599	-1.0	-1.0	-1.0	-1.0	-1.0	-1.0	-1.0	-1.0	-1.0
26393.3		0	1.38389	0	0.366813	1.5923	3.0929	5.36048	1.19214	6.0941	2.49266	8.35334	6.41923	6.0024	11.1295	16.0231	20.3498	8.90356	36.0311	54.3301	90.3611	80.5489	-1.0	-1.0	-1.0	-1.0	-1.0	-1.0	-1.0	-1.0	-1.0
26793.2		0.65026	0	1.95912	0	0	5.65226	5.81066	1.55896	3.0929	6.12745	0.733627	4.71022	7.96985	8.38669	10.7043	9.89562	20.6499	35.7726	29.5868	49.078	49.7699	-1.0	-1.0	-1.0	-1.0	-1.0	-1.0	-1.0	-1.0	-1.0
27193.1		0	0	0.942043	0	0	4.53515	4.68521	7.31959	2.14252	0.77531	2.55936	7.48633	2.68441	6.95278	0.366813	14.9727	7.03615	28.1029	45.4432	58.8652	69.8946	-1.0	-1.0	-1.0	-1.0	-1.0	-1.0	-1.0	-1.0	-1.0
27593		0	0.366813	2.14252	2.68441	8.31999	1.66733	0	0	2.96785	2.55936	2.39262	2.92617	7.36961	6.42757	14.4141	8.14492	12.8551	19.4745	42.4086	54.5468	58.1483	-1.0	-1.0	-1.0	-1.0	-1.0	-1.0	-1.0	-1.0	-1.0
27992.9		0	0.65026	0	0.65026	0.77531	3.9099	10.079	3.33467	11.9548	3.343	7.01947	7.6614	3.33467	3.95158	4.10998	11.563	25.8437	26.8524	30.1621	72.3289	66.2348	-1.0	-1.0	-1.0	-1.0	-1.0	-1.0	-1.0	-1.0	-1.0
28392.8		0	0.77531	1.19214	1.5923	7.44464	0.65026	5.72729	0	4.47679	8.52007	4.68521	4.23503	5.36881	12.8718	4.88529	11.1128	11.2712	19.191	30.7206	24.8016	56.7477	-1.0	-1.0	-1.0	-1.0	-1.0	-1.0	-1.0	-1.0	-1.0
28792.7		0	2.31759	0	2.39262	1.01707	0.65026	6.31086	0	2.14252	0	4.10998	1.01707	9.27871	6.96112	11.9631	7.03615	19.0326	18.7742	26.2355	34.1637	48.8279	-1.0	-1.0	-1.0	-1.0	-1.0	-1.0	-1.0	-1.0	-1.0
29192.6		0	0	0	0	4.82693	1.01707	1.79238	3.0929	1.66733	4.51847	4.28505	8.86188	9.56216	12.5133	3.95158	2.03415	15.6563	24.2931	12.0048	34.5388	51.2788	-1.0	-1.0	-1.0	-1.0	-1.0	-1.0	-1.0	-1.0	-1.0
29592.5		0.77531	0	1.01707	0	0	1.42557	3.87655	4.89362	3.16793	0	0.65026	1.66733	7.61138	11.6297	9.6622	10.0457	10.2458	12.8635	11.9298	24.8183	35.2724	-1.0	-1.0	-1.0	-1.0	-1.0	-1.0	-1.0	-1.0	-1.0
29992.4		2.68441	2.38429	2.96785	0	0	1.55896	1.19214	4.28505	5.24376	3.08457	5.65226	2.14252	9.93731	3.12625	7.51134	6.49426	5.31046	12.3883	12.0465	16.1565	32.1379	-1.0	-1.0	-1.0	-1.0	-1.0	-1.0	-1.0	-1.0	-1.0
30392.2		0	2.39262	0	0	0.65026	2.14252	1.01707	0	2.55936	4.47679	2.39262	2.39262	2.32593	4.18501	7.31959	7.58637	9.36208	14.4474	5.71895	18.3407	37.2732	-1.0	-1.0	-1.0	-1.0	-1.0	-1.0	-1.0	-1.0	-1.0
30792.1		2.55936	0	0	2.55936	0	2.31759	8.37835	0	0.942043	6.38589	0	8.98693	8.62011	10.004	4.82693	11.6463	10.5042	10.7376	20.8917	33.9386	53.8465	-1.0	-1.0	-1.0	-1.0	-1.0	-1.0	-1.0	-1.0	-1.0
31192		0.942043	0.77531	2.14252	4.40176	0	1.19214	2.55936	0	0	7.11118	6.38589	5.90236	0	3.9099	10.771	8.22829	2.31759	0	8.4117	17.3403	17.607	-1.0	-1.0	-1.0	-1.0	-1.0	-1.0	-1.0	-1.0	-1.0
31591.9		0.366813	2.39262	0	0	4.71022	0	0	2.13419	4.70188	0	5.89402	4.53515	0.77531	10.029	1.30052	5.11038	12.7551	16.64	6.27751	8.98693	15.9647	-1.0	-1.0	-1.0	-1.0	-1.0	-1.0	-1.0	-1.0	-1.0
31991.8		1.01707	0	2.55936	0	2.55936	2.31759	0	1.19214	3.28465	0.77531	8.11991	4.06829	4.76857	3.77651	11.0461	1.79238	7.99486	12.7468	9.04528	9.63719	-1.0	-1.0	-1.0	-1.0	-1.0	-1.0	-1.0	-1.0	-1.0	-1.0
32391.7		1.01707	2.55936	0	2.39262	0.366813	2.96785	2.68441	0	2.96785	0	3.7515	2.79278	4.71022	7.9115	2.14252	14.9893	5.98573	15.6896	4.63519	16.0981	-1.0	-1.0	-1.0	-1.0	-1.0	-1.0	-1.0	-1.0	-1.0	-1.0
32791.6		0	0	0	0	2.55936	0	0	3.81819	1.96745	4.76857	3.9099	2.39262	1.19214	14.1723	2.96785	3.33467	4.52681	7.86148	7.48633	11.6046	-1.0	-1.0	-1.0	-1.0	-1.0	-1.0	-1.0	-1.0	-1.0	-1.0
33191.5		0.77531	0	0	0	0	0	0	0	0.942043	0.366813	1.01707	14.6642	6.37755	7.86148	1.8424	6.37755	16.1148	4.02661	10.4458	8.78685	-1.0	-1.0	-1.0	-1.0	-1.0	-1.0	-1.0	-1.0	-1.0	-1.0
33591.4		0	0	0	0.366813	0.366813	0	2.14252	1.14212	0	3.33467	0	5.24376	5.85234	5.37715	2.57603	4.76024	5.002	7.35294	7.32793	16.1481	-1.0	-1.0	-1.0	-1.0	-1.0	-1.0	-1.0	-1.0	-1.0	-1.0
33991.3		0	0.65026	0	3.62645	2.68441	3.33467	0	0	0	0	2.55936	2.96785	0.366813	7.80312	1.14212	2.33427	4.37675	4.10998	9.87895	11.4796	-1.0	-1.0	-1.0	-1.0	-1.0	-1.0	-1.0	-1.0	-1.0	-1.0
34391.2		0	1.30052	0	0.942043	0	2.39262	0	0	0	0	7.39462	0.942043	7.66973	5.23543	2.6594	8.95358	7.47799	6.31086	0.942043	15.1477	-1.0	-1.0	-1.0	-1.0	-1.0	-1.0	-1.0	-1.0	-1.0	-1.0
34791.1		0	0.366813	1.19214	0	2.39262	2.39262	0.366813	0	3.0929	0	8.10324	2.14252	2.61771	1.01707	0	6.12745	12.455	7.86981	0.942043	6.61098	-1.0	-1.0	-1.0	-1.0	-1.0	-1.0	-1.0	-1.0	-1.0	-1.0
35191		0	0	1.01707	1.01707	1.01707	0	0	0	3.1596	0	0	1.55062	1.01707	2.68441	8.44504	0	10.029	9.162	8.6618	5.96905	-1.0	-1.0	-1.0	-1.0	-1.0	-1.0	-1.0	-1.0	-1.0	-1.0